#
# This work is licensed under the Creative Commons 
# Attribution-NoDerivatives 4.0 International License. 
# To view a copy of this license, visit 
# http://creativecommons.org/licenses/by-nd/4.0/.
#
#      f(MHz)    AF (dB/m) 
        1e+08      44.3748
  1.05247e+08      52.8105
  1.10493e+08      55.9586
   1.1574e+08      57.8113
  1.20987e+08      59.7127
  1.26234e+08      61.4291
   1.3148e+08      62.8613
  1.36727e+08      65.5762
  1.41974e+08      66.3951
   1.4722e+08      67.1091
  1.52467e+08      67.1671
  1.57714e+08      67.0425
  1.62961e+08      67.2423
  1.68207e+08       67.537
  1.73454e+08      68.0555
  1.78701e+08      68.3346
  1.83948e+08      68.3865
  1.89194e+08      67.3291
  1.94441e+08           68
  1.99688e+08      68.3099
  2.04934e+08      69.1587
  2.10181e+08      69.0319
  2.15428e+08      68.8593
  2.20675e+08      68.8058
  2.25921e+08      68.5035
  2.31168e+08      68.1575
  2.36415e+08      68.0309
  2.41662e+08      70.5027
  2.46908e+08      69.8734
  2.52155e+08      71.4761
  2.57402e+08      70.8085
  2.62648e+08       70.817
  2.67895e+08      70.8644
  2.73142e+08      70.8843
  2.78388e+08      70.7064
  2.83635e+08      70.5867
  2.88882e+08      70.4606
  2.94129e+08      68.0357
  2.99375e+08      68.1029
  3.04622e+08      65.2276
  3.09869e+08      65.1691
  3.15116e+08      65.2316
  3.20362e+08      65.2446
  3.25609e+08      65.1544
  3.30856e+08      65.4821
  3.36102e+08      65.6122
  3.41349e+08      65.7296
  3.46596e+08      65.6675
  3.51843e+08      67.5387
  3.57089e+08      67.7077
  3.62336e+08      67.9113
  3.67583e+08        67.89
   3.7283e+08      67.9596
  3.78076e+08      67.9295
  3.83323e+08      67.8432
   3.8857e+08      67.9351
  3.93816e+08      68.0546
  3.99063e+08      67.9549
   4.0431e+08      66.2844
  4.09556e+08       65.966
  4.14803e+08      65.7657
   4.2005e+08      65.5221
  4.25297e+08      65.1234
  4.30543e+08      64.9197
   4.3579e+08      64.5298
  4.41037e+08      64.1667
  4.46284e+08      63.8789
   4.5153e+08       63.555
  4.56777e+08      63.1727
  4.62024e+08      62.9389
   4.6727e+08       62.654
  4.72517e+08      62.4148
  4.77764e+08      62.1847
  4.83011e+08      61.9609
  4.88257e+08      61.8912
  4.93504e+08      61.7909
  4.98751e+08      61.5996
  5.03998e+08      61.5221
  5.09244e+08      61.5188
  5.14491e+08      61.5496
  5.19738e+08      61.5064
  5.24984e+08      61.5552
  5.30231e+08      61.5963
  5.35478e+08      61.5853
  5.40724e+08      61.5267
  5.45971e+08      61.5377
  5.51218e+08      61.5097
  5.56465e+08      61.4892
  5.61711e+08      61.4885
  5.66958e+08      61.4055
  5.72205e+08       61.417
  5.77452e+08      61.3335
  5.82698e+08      61.2743
  5.87945e+08      61.1781
  5.93192e+08      61.0569
  5.98438e+08       60.966
  6.03685e+08      60.8371
  6.08932e+08      60.7612
  6.14179e+08      60.6342
  6.19425e+08      60.5683
  6.24672e+08      60.3646
  6.29919e+08      60.2344
  6.35166e+08      60.1289
  6.40412e+08      60.0756
  6.45659e+08      59.9882
  6.50906e+08      59.9496
  6.56152e+08      59.8751
  6.61399e+08      59.7685
  6.66646e+08      59.7034
  6.71893e+08       59.611
  6.77139e+08      59.5921
  6.82386e+08      59.5611
  6.87633e+08      59.4891
   6.9288e+08      59.4054
  6.98126e+08      59.3498
  7.03373e+08      59.2471
   7.0862e+08      59.1751
  7.13866e+08      59.1119
  7.19113e+08      59.0038
   7.2436e+08       58.897
  7.29606e+08       58.754
  7.34853e+08      58.6477
    7.401e+08      58.5829
  7.45347e+08      58.5148
  7.50593e+08      58.3935
   7.5584e+08      58.2769
  7.61087e+08      58.1674
  7.66334e+08      58.0656
   7.7158e+08       57.937
  7.76827e+08      57.8327
  7.82074e+08      57.7807
   7.8732e+08      57.6907
  7.92567e+08      57.5931
  7.97814e+08      57.4803
  8.03061e+08      57.4107
  8.08307e+08      57.3119
  8.13554e+08       57.253
  8.18801e+08      57.1931
  8.24048e+08      57.1399
  8.29294e+08      57.0936
  8.34541e+08      57.0149
  8.39788e+08      56.9203
  8.45034e+08      56.8637
  8.50281e+08      56.8336
  8.55528e+08      56.8045
  8.60774e+08        56.79
  8.66021e+08      56.7524
  8.71268e+08      56.7001
  8.76515e+08      56.6743
  8.81761e+08      56.6212
  8.87008e+08      56.5927
  8.92255e+08      56.5647
  8.97502e+08      56.5263
  9.02748e+08      56.4513
  9.07995e+08      56.3913
  9.13242e+08      56.3276
  9.18488e+08      56.2656
  9.23735e+08      56.2023
  9.28982e+08      56.1229
  9.34229e+08      56.0501
  9.39475e+08      55.9739
  9.44722e+08      55.9121
  9.49969e+08      55.8511
  9.55216e+08      55.8058
  9.60462e+08      55.7185
  9.65709e+08      55.6394
  9.70956e+08      55.5513
  9.76202e+08      55.4874
  9.81449e+08      55.4442
  9.86696e+08      55.3968
  9.91942e+08      55.3385
  9.97189e+08      55.2689
  1.00244e+09      55.2128
  1.00768e+09      55.1492
  1.01293e+09       55.097
  1.01818e+09       55.058
  1.02342e+09      55.0307
  1.02867e+09      54.9945
  1.03392e+09      54.9461
  1.03916e+09      54.8848
  1.04441e+09      54.8403
  1.04966e+09      54.7991
   1.0549e+09      54.7473
  1.06015e+09       54.709
   1.0654e+09      54.6788
  1.07064e+09      54.6266
  1.07589e+09      54.5712
  1.08114e+09      54.5191
  1.08638e+09       54.459
  1.09163e+09      54.4158
  1.09688e+09      54.3585
  1.10212e+09      54.3172
  1.10737e+09      54.2688
  1.11262e+09      54.1956
  1.11786e+09      54.1314
  1.12311e+09      54.0772
  1.12836e+09      54.0284
   1.1336e+09      53.9619
  1.13885e+09      53.9113
   1.1441e+09      53.8674
  1.14934e+09      53.8216
  1.15459e+09      53.7577
  1.15984e+09      53.6913
  1.16508e+09      53.6452
  1.17033e+09      53.5988
  1.17558e+09      53.5536
  1.18082e+09      53.5058
  1.18607e+09       53.463
  1.19132e+09      53.4079
  1.19656e+09       53.346
  1.20181e+09      53.2804
  1.20706e+09       53.221
   1.2123e+09      53.1686
  1.21755e+09      53.1104
   1.2228e+09      53.0473
  1.22804e+09      52.9787
  1.23329e+09      52.9086
  1.23854e+09        52.85
  1.24378e+09      52.8122
  1.24903e+09      52.7643
  1.25428e+09      52.7111
  1.25952e+09      52.6452
  1.26477e+09      52.5736
  1.27002e+09      52.5089
  1.27526e+09      52.4534
  1.28051e+09       52.407
  1.28576e+09      52.3616
  1.29101e+09      52.3082
  1.29625e+09      52.2444
   1.3015e+09      52.1895
  1.30675e+09        52.14
  1.31199e+09      52.0997
  1.31724e+09      52.0566
  1.32249e+09      52.0088
  1.32773e+09       51.961
  1.33298e+09      51.9143
  1.33823e+09      51.8678
  1.34347e+09      51.8212
  1.34872e+09      51.7692
  1.35397e+09      51.7163
  1.35921e+09      51.6689
  1.36446e+09      51.6213
  1.36971e+09      51.5752
  1.37495e+09      51.5292
   1.3802e+09      51.4749
  1.38545e+09      51.4174
  1.39069e+09       51.358
  1.39594e+09      51.3053
  1.40119e+09      51.2616
  1.40643e+09      51.2017
  1.41168e+09      51.1358
  1.41693e+09      51.0755
  1.42217e+09      51.0227
  1.42742e+09      50.9674
  1.43267e+09      50.9077
  1.43791e+09        50.86
  1.44316e+09      50.8228
  1.44841e+09      50.7776
  1.45365e+09      50.7196
   1.4589e+09      50.6749
  1.46415e+09      50.6332
  1.46939e+09       50.584
  1.47464e+09      50.5428
  1.47989e+09      50.5193
  1.48513e+09      50.5158
  1.49038e+09      50.5051
  1.49563e+09      50.4758
  1.50087e+09      50.4391
  1.50612e+09      50.4037
  1.51137e+09      50.3752
  1.51662e+09      50.3537
  1.52186e+09       50.347
  1.52711e+09      50.3372
  1.53236e+09       50.315
   1.5376e+09      50.2758
  1.54285e+09       50.226
   1.5481e+09      50.1854
  1.55334e+09      50.1498
  1.55859e+09      50.1237
  1.56384e+09      50.0995
  1.56908e+09      50.0705
  1.57433e+09      50.0214
  1.57958e+09      49.9593
  1.58482e+09      49.8956
  1.59007e+09      49.8341
  1.59532e+09      49.7845
  1.60056e+09      49.7458
  1.60581e+09      49.7247
  1.61106e+09      49.6985
   1.6163e+09      49.6515
  1.62155e+09      49.5945
   1.6268e+09      49.5423
  1.63204e+09      49.5022
  1.63729e+09      49.4721
  1.64254e+09      49.4577
  1.64778e+09      49.4479
  1.65303e+09      49.4276
  1.65828e+09      49.3859
  1.66352e+09      49.3321
  1.66877e+09      49.2856
  1.67402e+09      49.2477
  1.67926e+09      49.2237
  1.68451e+09      49.2061
  1.68976e+09      49.1824
    1.695e+09      49.1398
  1.70025e+09       49.083
   1.7055e+09      49.0135
  1.71074e+09      48.9449
  1.71599e+09      48.8882
  1.72124e+09       48.838
  1.72648e+09      48.8004
  1.73173e+09      48.7597
  1.73698e+09      48.7044
  1.74222e+09      48.6376
  1.74747e+09      48.5663
  1.75272e+09      48.4894
  1.75796e+09      48.4242
  1.76321e+09      48.3794
  1.76846e+09      48.3473
   1.7737e+09      48.3095
  1.77895e+09      48.2505
   1.7842e+09      48.1877
  1.78944e+09      48.1254
  1.79469e+09      48.0749
  1.79994e+09        48.03
  1.80518e+09      47.9971
  1.81043e+09      47.9662
  1.81568e+09      47.9282
  1.82092e+09      47.8769
  1.82617e+09      47.8332
  1.83142e+09      47.8003
  1.83666e+09        47.76
  1.84191e+09       47.721
  1.84716e+09      47.6805
   1.8524e+09      47.6486
  1.85765e+09      47.6166
   1.8629e+09      47.5811
  1.86814e+09      47.5433
  1.87339e+09      47.5014
  1.87864e+09      47.4595
  1.88388e+09      47.4228
  1.88913e+09      47.3953
  1.89438e+09      47.3722
  1.89962e+09      47.3457
  1.90487e+09      47.3059
  1.91012e+09      47.2627
  1.91536e+09      47.2187
  1.92061e+09      47.1817
  1.92586e+09      47.1601
  1.93111e+09      47.1352
  1.93635e+09       47.099
   1.9416e+09      47.0592
  1.94685e+09      47.0216
  1.95209e+09      46.9902
  1.95734e+09      46.9615
  1.96259e+09      46.9308
  1.96783e+09      46.9045
  1.97308e+09      46.8671
  1.97833e+09      46.8225
  1.98357e+09      46.7825
  1.98882e+09      46.7575
  1.99407e+09       46.727
  1.99931e+09      46.6824
  2.00456e+09      46.6385
  2.00981e+09      46.6081
  2.01505e+09      46.5758
   2.0203e+09      46.5371
  2.02555e+09      46.4997
  2.03079e+09       46.465
  2.03604e+09       46.437
  2.04129e+09       46.399
  2.04653e+09      46.3644
  2.05178e+09      46.3308
  2.05703e+09      46.2965
  2.06227e+09      46.2573
  2.06752e+09      46.2301
  2.07277e+09      46.2205
  2.07801e+09      46.2182
  2.08326e+09      46.2091
  2.08851e+09      46.1824
  2.09375e+09      46.1508
    2.099e+09      46.1218
  2.10425e+09      46.1098
  2.10949e+09      46.1091
  2.11474e+09      46.1111
  2.11999e+09      46.1081
  2.12523e+09      46.0899
  2.13048e+09      46.0627
  2.13573e+09      46.0395
  2.14097e+09      46.0236
  2.14622e+09      46.0131
  2.15147e+09      46.0035
  2.15672e+09      45.9926
  2.16196e+09      45.9672
  2.16721e+09      45.9389
  2.17246e+09      45.9074
   2.1777e+09      45.8788
  2.18295e+09       45.849
   2.1882e+09       45.814
  2.19344e+09      45.7817
  2.19869e+09      45.7578
  2.20394e+09      45.7307
  2.20918e+09      45.6892
  2.21443e+09      45.6472
  2.21968e+09      45.6102
  2.22492e+09      45.5824
  2.23017e+09      45.5476
  2.23542e+09      45.5139
  2.24066e+09      45.4792
  2.24591e+09      45.4322
  2.25116e+09      45.3812
   2.2564e+09       45.345
  2.26165e+09      45.3272
   2.2669e+09      45.3061
  2.27214e+09      45.2685
  2.27739e+09      45.2188
  2.28264e+09      45.1713
  2.28788e+09      45.1266
  2.29313e+09      45.0937
  2.29838e+09      45.0763
  2.30362e+09      45.0609
  2.30887e+09      45.0264
  2.31412e+09      44.9755
  2.31936e+09      44.9337
  2.32461e+09      44.9079
  2.32986e+09      44.8854
   2.3351e+09      44.8565
  2.34035e+09      44.8187
   2.3456e+09      44.7788
  2.35084e+09      44.7454
  2.35609e+09      44.7129
  2.36134e+09      44.6844
  2.36658e+09       44.661
  2.37183e+09      44.6347
  2.37708e+09      44.5981
  2.38232e+09      44.5598
  2.38757e+09      44.5316
  2.39282e+09       44.514
  2.39806e+09      44.4951
  2.40331e+09      44.4685
  2.40856e+09      44.4432
   2.4138e+09      44.4238
  2.41905e+09      44.4026
   2.4243e+09      44.3801
  2.42954e+09      44.3596
  2.43479e+09      44.3492
  2.44004e+09      44.3466
  2.44528e+09      44.3425
  2.45053e+09      44.3374
  2.45578e+09      44.3279
  2.46102e+09      44.3153
  2.46627e+09      44.3032
  2.47152e+09      44.2931
  2.47676e+09      44.2848
  2.48201e+09      44.2804
  2.48726e+09      44.2749
   2.4925e+09      44.2751
  2.49775e+09      44.2766
    2.503e+09      44.2708
  2.50824e+09      44.2578
  2.51349e+09      44.2411
  2.51874e+09      44.2239
  2.52398e+09      44.2147
  2.52923e+09       44.217
  2.53448e+09      44.2165
  2.53972e+09      44.2074
  2.54497e+09      44.1802
  2.55022e+09      44.1488
  2.55546e+09      44.1319
  2.56071e+09      44.1303
  2.56596e+09      44.1326
   2.5712e+09      44.1263
  2.57645e+09      44.1082
   2.5817e+09        44.08
  2.58695e+09      44.0492
  2.59219e+09       44.023
  2.59744e+09      44.0052
  2.60269e+09      43.9993
  2.60793e+09      43.9892
  2.61318e+09      43.9739
  2.61843e+09      43.9614
  2.62367e+09      43.9509
  2.62892e+09      43.9359
  2.63417e+09      43.9226
  2.63941e+09      43.9177
  2.64466e+09      43.9152
  2.64991e+09       43.911
  2.65515e+09       43.904
   2.6604e+09      43.9045
  2.66565e+09      43.9085
  2.67089e+09      43.9055
  2.67614e+09      43.9076
  2.68139e+09       43.918
  2.68663e+09       43.926
  2.69188e+09      43.9282
  2.69713e+09      43.9318
  2.70237e+09      43.9413
  2.70762e+09      43.9522
  2.71287e+09      43.9542
  2.71811e+09      43.9548
  2.72336e+09      43.9559
  2.72861e+09      43.9496
  2.73385e+09      43.9418
   2.7391e+09      43.9351
  2.74435e+09      43.9385
  2.74959e+09      43.9477
  2.75484e+09       43.957
  2.76009e+09      43.9558
  2.76533e+09      43.9466
  2.77058e+09      43.9314
  2.77583e+09      43.9176
  2.78107e+09      43.9135
  2.78632e+09      43.9158
  2.79157e+09       43.922
  2.79681e+09      43.9256
  2.80206e+09      43.9223
  2.80731e+09      43.9086
  2.81256e+09      43.9004
   2.8178e+09      43.9023
  2.82305e+09      43.9118
   2.8283e+09      43.9272
  2.83354e+09      43.9467
  2.83879e+09      43.9637
  2.84404e+09      43.9626
  2.84928e+09      43.9468
  2.85453e+09      43.9323
  2.85978e+09      43.9293
  2.86502e+09      43.9359
  2.87027e+09      43.9497
  2.87552e+09      43.9671
  2.88076e+09      43.9708
  2.88601e+09      43.9562
  2.89126e+09      43.9311
   2.8965e+09      43.9157
  2.90175e+09      43.9081
    2.907e+09      43.9018
  2.91224e+09      43.9008
  2.91749e+09      43.8942
  2.92274e+09      43.8685
  2.92798e+09      43.8301
  2.93323e+09      43.7948
  2.93848e+09      43.7698
  2.94372e+09      43.7626
  2.94897e+09      43.7657
  2.95422e+09      43.7656
  2.95946e+09      43.7522
  2.96471e+09      43.7218
  2.96996e+09      43.6911
   2.9752e+09      43.6788
  2.98045e+09      43.6765
   2.9857e+09      43.6794
  2.99094e+09      43.6815
  2.99619e+09      43.6786
  3.00144e+09      43.6718
  3.00668e+09      43.6682
  3.01193e+09      43.6757
  3.01718e+09      43.6951
  3.02242e+09       43.712
  3.02767e+09       43.727
  3.03292e+09      43.7416
  3.03816e+09      43.7531
  3.04341e+09      43.7687
  3.04866e+09      43.7809
   3.0539e+09      43.7958
  3.05915e+09      43.8175
   3.0644e+09      43.8441
  3.06964e+09      43.8682
  3.07489e+09       43.893
  3.08014e+09      43.9103
  3.08538e+09      43.9232
  3.09063e+09      43.9427
  3.09588e+09      43.9617
  3.10112e+09      43.9831
  3.10637e+09      44.0028
  3.11162e+09      44.0188
  3.11686e+09      44.0355
  3.12211e+09      44.0521
  3.12736e+09      44.0702
   3.1326e+09      44.0892
  3.13785e+09      44.1094
   3.1431e+09       44.128
  3.14834e+09      44.1428
  3.15359e+09       44.159
  3.15884e+09        44.18
  3.16408e+09       44.204
  3.16933e+09      44.2233
  3.17458e+09      44.2433
  3.17982e+09      44.2618
  3.18507e+09      44.2798
  3.19032e+09      44.2966
  3.19556e+09      44.3159
  3.20081e+09      44.3403
  3.20606e+09      44.3621
   3.2113e+09      44.3836
  3.21655e+09      44.4052
   3.2218e+09      44.4309
  3.22705e+09       44.453
  3.23229e+09      44.4669
  3.23754e+09      44.4758
  3.24279e+09      44.4876
  3.24803e+09      44.5041
  3.25328e+09      44.5206
  3.25853e+09      44.5422
  3.26377e+09       44.557
  3.26902e+09      44.5652
  3.27427e+09      44.5641
  3.27951e+09       44.557
  3.28476e+09      44.5537
  3.29001e+09      44.5625
  3.29525e+09      44.5754
   3.3005e+09      44.5876
  3.30575e+09      44.5955
  3.31099e+09       44.592
  3.31624e+09      44.5841
  3.32149e+09      44.5727
  3.32673e+09      44.5627
  3.33198e+09      44.5671
  3.33723e+09      44.5841
  3.34247e+09      44.5991
  3.34772e+09      44.6071
  3.35297e+09       44.602
  3.35821e+09      44.5908
  3.36346e+09      44.5823
  3.36871e+09      44.5817
  3.37395e+09      44.5951
   3.3792e+09      44.6248
  3.38445e+09      44.6488
  3.38969e+09      44.6526
  3.39494e+09      44.6434
  3.40019e+09      44.6364
  3.40543e+09      44.6403
  3.41068e+09      44.6617
  3.41593e+09      44.6988
  3.42117e+09       44.739
  3.42642e+09       44.764
  3.43167e+09      44.7708
  3.43691e+09      44.7726
  3.44216e+09      44.7864
  3.44741e+09      44.8107
  3.45266e+09       44.839
   3.4579e+09      44.8726
  3.46315e+09      44.9026
   3.4684e+09      44.9235
  3.47364e+09      44.9382
  3.47889e+09      44.9559
  3.48414e+09       44.974
  3.48938e+09      44.9931
  3.49463e+09      45.0137
  3.49988e+09      45.0371
  3.50512e+09      45.0594
  3.51037e+09      45.0754
  3.51562e+09      45.0844
  3.52086e+09      45.0892
  3.52611e+09      45.0946
  3.53136e+09       45.105
   3.5366e+09      45.1179
  3.54185e+09      45.1323
   3.5471e+09      45.1435
  3.55234e+09      45.1504
  3.55759e+09      45.1539
  3.56284e+09      45.1575
  3.56808e+09      45.1635
  3.57333e+09      45.1709
  3.57858e+09       45.181
  3.58382e+09      45.1948
  3.58907e+09      45.2105
  3.59432e+09      45.2222
  3.59956e+09      45.2335
  3.60481e+09      45.2474
  3.61006e+09      45.2631
   3.6153e+09      45.2735
  3.62055e+09      45.2865
   3.6258e+09      45.3055
  3.63104e+09      45.3237
  3.63629e+09       45.337
  3.64154e+09      45.3509
  3.64678e+09      45.3697
  3.65203e+09      45.3911
  3.65728e+09      45.4084
  3.66252e+09      45.4257
  3.66777e+09      45.4452
  3.67302e+09      45.4632
  3.67826e+09      45.4753
  3.68351e+09      45.4871
  3.68876e+09      45.4993
    3.694e+09      45.5113
  3.69925e+09      45.5244
   3.7045e+09      45.5378
  3.70974e+09      45.5556
  3.71499e+09      45.5691
  3.72024e+09      45.5789
  3.72548e+09      45.5875
  3.73073e+09      45.5959
  3.73598e+09      45.6065
  3.74122e+09      45.6206
  3.74647e+09      45.6357
  3.75172e+09      45.6497
  3.75696e+09      45.6587
  3.76221e+09      45.6684
  3.76746e+09       45.686
   3.7727e+09      45.7078
  3.77795e+09      45.7324
   3.7832e+09       45.755
  3.78844e+09      45.7732
  3.79369e+09      45.7937
  3.79894e+09       45.818
  3.80418e+09      45.8447
  3.80943e+09      45.8743
  3.81468e+09      45.9027
  3.81992e+09      45.9279
  3.82517e+09      45.9533
  3.83042e+09      45.9759
  3.83566e+09      46.0013
  3.84091e+09      46.0332
  3.84616e+09       46.066
   3.8514e+09      46.0953
  3.85665e+09      46.1183
   3.8619e+09       46.141
  3.86715e+09      46.1574
  3.87239e+09      46.1714
  3.87764e+09      46.1853
  3.88289e+09      46.2032
  3.88813e+09      46.2222
  3.89338e+09      46.2366
  3.89863e+09      46.2467
  3.90387e+09      46.2571
  3.90912e+09      46.2698
  3.91437e+09      46.2744
  3.91961e+09      46.2819
  3.92486e+09      46.2902
  3.93011e+09      46.2986
  3.93535e+09      46.3056
